        1490     1      0.0818279      1128.3101
   2-theta, deg      I(obs)
   1.000501          35.70
   1.013182          35.15
   1.025862          35.12
   1.038542          35.37
   1.051223          35.75
   1.063903          36.00
   1.076584          36.43
   1.089264          36.83
   1.101945          37.12
   1.114625          37.18
   1.127306          38.14
   1.139986          38.45
   1.152666          39.65
   1.165347          40.73
   1.178028          41.45
   1.190708          42.23
   1.203389          43.29
   1.216069          44.75
   1.228750          46.80
   1.241430          48.44
   1.254111          50.63
   1.266792          53.09
   1.279472          56.00
   1.292153          59.16
   1.304834          63.00
   1.317514          67.61
   1.330195          74.74
   1.342876          81.95
   1.355557          90.75
   1.368237         101.31
   1.380918         120.96
   1.393599         142.54
   1.406280         170.74
   1.418961         205.88
   1.431641         275.28
   1.444322         365.33
   1.457003         485.32
   1.469684         636.40
   1.482365         931.52
   1.495046        1402.24
   1.507727        1920.01
   1.520408        2572.85
   1.533089        3413.95
   1.545770        4469.66
   1.558451        5344.86
   1.571132        5926.81
   1.583813        6127.49
   1.596494        6052.28
   1.609175        5601.20
   1.621856        4906.65
   1.634537        4098.89
   1.647219        3034.39
   1.659900        2237.36
   1.672581        1613.73
   1.685262        1218.28
   1.697943         917.53
   1.710625         724.80
   1.723306         641.81
   1.735987         637.90
   1.748669         685.54
   1.761350         820.93
   1.774031         966.05
   1.786713        1162.17
   1.799394        1329.26
   1.812076        1519.84
   1.824757        1620.56
   1.837439        1616.77
   1.850120        1538.85
   1.862802        1351.30
   1.875483        1141.90
   1.888165         923.12
   1.900846         723.97
   1.913528         527.98
   1.926210         383.43
   1.938891         284.60
   1.951573         227.90
   1.964255         185.09
   1.976936         153.42
   1.989618         136.32
   2.002300         124.91
   2.014982         116.96
   2.027664         109.91
   2.040346         104.67
   2.053027         100.63
   2.065709          97.78
   2.078391          95.29
   2.091073          93.49
   2.103755          92.26
   2.116437          91.50
   2.129119          91.25
   2.141801          91.62
   2.154483          92.12
   2.167166          92.95
   2.179848          95.10
   2.192530          98.03
   2.205212         101.01
   2.217894         104.75
   2.230577         108.45
   2.243259         113.11
   2.255941         116.50
   2.268624         119.00
   2.281306         120.54
   2.293988         121.87
   2.306671         122.58
   2.319353         123.39
   2.332036         124.26
   2.344718         126.64
   2.357401         130.00
   2.370083         134.46
   2.382766         140.06
   2.395448         148.20
   2.408131         159.37
   2.420814         171.36
   2.433497         187.01
   2.446179         210.07
   2.458862         245.90
   2.471545         287.83
   2.484228         355.34
   2.496911         446.78
   2.509593         612.65
   2.522276         794.58
   2.534959        1007.63
   2.547642        1221.15
   2.560325        1486.29
   2.573008        1665.40
   2.585691        1782.30
   2.598375        1769.02
   2.611058        1668.48
   2.623741        1482.88
   2.636424        1264.27
   2.649107        1045.00
   2.661791         825.79
   2.674474         621.06
   2.687157         495.69
   2.699841         402.36
   2.712524         345.43
   2.725207         302.15
   2.737891         277.45
   2.750574         263.55
   2.763258         257.91
   2.775942         257.41
   2.788625         262.72
   2.801309         271.39
   2.813992         284.57
   2.826676         306.30
   2.839360         334.00
   2.852044         366.31
   2.864727         415.01
   2.877411         480.43
   2.890095         586.88
   2.902779         720.23
   2.915463         919.20
   2.928147        1203.68
   2.940831        1735.34
   2.953515        2322.73
   2.966199        3180.18
   2.978883        4194.94
   2.991568        5557.86
   3.004252        6733.74
   3.016936        7720.91
   3.029620        8292.36
   3.042305        8609.85
   3.054989        8345.60
   3.067673        7821.42
   3.080358        7117.24
   3.093042        6344.48
   3.105727        5729.65
   3.118411        5416.35
   3.131096        5400.09
   3.143781        5519.21
   3.156465        5722.99
   3.169150        5744.51
   3.181835        5551.92
   3.194519        5163.48
   3.207204        4441.07
   3.219889        3733.99
   3.232574        2973.45
   3.245259        2362.07
   3.257944        1744.33
   3.270629        1302.55
   3.283314        1009.76
   3.295999         840.05
   3.308684         697.79
   3.321369         601.94
   3.334055         545.73
   3.346740         506.83
   3.359425         484.10
   3.372110         470.82
   3.384796         466.75
   3.397481         471.43
   3.410167         482.74
   3.422852         503.74
   3.435538         532.67
   3.448223         570.48
   3.460909         620.96
   3.473595         706.06
   3.486280         814.64
   3.498966         954.26
   3.511652        1165.59
   3.524338        1490.74
   3.537024        1985.85
   3.549710        2654.34
   3.562396        3643.47
   3.575082        5077.34
   3.587768        7387.30
   3.600454        9940.86
   3.613140       13019.58
   3.625826       16167.88
   3.638512       19418.99
   3.651199       21436.05
   3.663885       22349.19
   3.676571       21831.03
   3.689258       20057.26
   3.701944       17217.88
   3.714631       14237.99
   3.727317       11180.56
   3.740004        8021.73
   3.752691        5679.92
   3.765377        4073.69
   3.778064        2980.08
   3.790751        2228.43
   3.803438        1667.91
   3.816124        1347.49
   3.828811        1144.83
   3.841498        1018.52
   3.854185         951.04
   3.866872         949.97
   3.879560        1001.69
   3.892247        1146.51
   3.904934        1391.36
   3.917621        1743.08
   3.930308        2172.91
   3.942996        2664.43
   3.955683        3246.15
   3.968371        3758.36
   3.981058        4078.57
   3.993746        4216.64
   4.006433        4131.22
   4.019121        3833.66
   4.031809        3431.59
   4.044496        2929.99
   4.057184        2430.76
   4.069872        1939.84
   4.082560        1599.97
   4.095248        1335.21
   4.107936        1141.49
   4.120624         968.39
   4.133312         846.01
   4.146000         744.36
   4.158688         660.58
   4.171377         587.35
   4.184065         535.06
   4.196753         500.93
   4.209442         478.64
   4.222130         463.97
   4.234819         457.44
   4.247507         456.47
   4.260196         460.12
   4.272884         470.05
   4.285573         486.58
   4.298262         509.30
   4.310951         542.92
   4.323640         595.12
   4.336329         676.66
   4.349018         789.78
   4.361707         942.29
   4.374396        1190.03
   4.387085        1579.84
   4.399774        2131.80
   4.412463        2801.93
   4.425153        3703.96
   4.437842        4844.06
   4.450531        6006.30
   4.463221        6897.62
   4.475910        7579.10
   4.488600        7850.26
   4.501289        7674.82
   4.513979        7092.25
   4.526669        6252.10
   4.539359        5162.28
   4.552049        4008.07
   4.564738        3081.08
   4.577428        2392.87
   4.590118        1885.90
   4.602808        1547.44
   4.615499        1380.12
   4.628189        1338.79
   4.640879        1422.53
   4.653569        1650.36
   4.666260        2031.59
   4.678950        2567.81
   4.691641        3295.33
   4.704331        4324.45
   4.717022        5392.82
   4.729712        6324.33
   4.742403        7096.85
   4.755094        7558.21
   4.767785        7597.56
   4.780476        7211.96
   4.793166        6538.74
   4.805857        5480.74
   4.818549        4369.62
   4.831240        3360.11
   4.843931        2628.64
   4.856622        1971.74
   4.869313        1507.82
   4.882005        1205.98
   4.894696        1017.00
   4.907388         888.49
   4.920079         804.00
   4.932771         752.02
   4.945462         732.30
   4.958154         731.35
   4.970846         752.72
   4.983538         793.23
   4.996230         858.30
   5.008922         948.31
   5.021614        1116.60
   5.034306        1335.75
   5.046998        1657.16
   5.059690        2105.23
   5.072382        2846.14
   5.085075        3931.65
   5.097767        5452.39
   5.110459        7287.81
   5.123152        9850.14
   5.135845       12884.99
   5.148537       15622.80
   5.161230       17872.21
   5.173923       19362.38
   5.186616       19746.36
   5.199308       19119.86
   5.212001       17279.18
   5.224694       15023.42
   5.237387       11773.81
   5.250081        9050.94
   5.262774        6676.33
   5.275467        4945.09
   5.288160        3478.76
   5.300854        2566.61
   5.313547        1930.16
   5.326241        1547.28
   5.338935        1268.05
   5.351628        1066.59
   5.364322         940.31
   5.377016         864.76
   5.389710         814.85
   5.402404         785.21
   5.415098         774.67
   5.427792         776.03
   5.440486         785.98
   5.453180         802.98
   5.465874         817.04
   5.478569         823.76
   5.491263         817.86
   5.503957         796.69
   5.516652         760.80
   5.529347         714.60
   5.542041         663.99
   5.554736         601.86
   5.567431         545.99
   5.580126         501.04
   5.592821         466.93
   5.605516         439.42
   5.618211         417.29
   5.630906         402.64
   5.643601         391.88
   5.656296         383.59
   5.668992         376.61
   5.681687         372.31
   5.694383         369.58
   5.707078         368.36
   5.719774         368.41
   5.732470         369.88
   5.745165         372.25
   5.757861         375.17
   5.770557         378.73
   5.783253         382.06
   5.795949         384.37
   5.808645         386.12
   5.821342         387.87
   5.834038         389.90
   5.846734         393.23
   5.859431         399.41
   5.872127         410.99
   5.884824         430.07
   5.897520         456.69
   5.910217         496.04
   5.922914         556.93
   5.935611         646.75
   5.948308         762.57
   5.961005         902.80
   5.973702        1096.25
   5.986399        1359.08
   5.999096        1675.93
   6.011794        2009.92
   6.024491        2413.64
   6.037188        2850.84
   6.049886        3223.15
   6.062583        3479.74
   6.075281        3578.56
   6.087979        3498.13
   6.100677        3270.28
   6.113375        2916.71
   6.126073        2514.90
   6.138771        2041.38
   6.151469        1611.78
   6.164167        1290.38
   6.176865        1066.86
   6.189564         922.83
   6.202262         850.09
   6.214960         840.26
   6.227659         897.28
   6.240358        1025.87
   6.253056        1257.86
   6.265755        1589.90
   6.278454        1994.38
   6.291153        2511.26
   6.303852        3173.46
   6.316551        3733.97
   6.329250        4185.65
   6.341950        4462.58
   6.354649        4499.72
   6.367348        4324.61
   6.380048        3913.29
   6.392748        3440.58
   6.405447        2810.12
   6.418147        2246.90
   6.430847        1824.44
   6.443547        1551.54
   6.456247        1394.06
   6.468947        1369.86
   6.481647        1439.16
   6.494347        1583.80
   6.507047        1769.63
   6.519748        1963.60
   6.532448        2095.50
   6.545149        2153.40
   6.557849        2126.06
   6.570550        1991.09
   6.583251        1807.96
   6.595952        1590.04
   6.608653        1365.08
   6.621354        1126.12
   6.634055         942.96
   6.646756         806.38
   6.659457         712.36
   6.672159         640.92
   6.684860         602.05
   6.697562         589.26
   6.710263         602.86
   6.722965         647.43
   6.735667         731.74
   6.748368         854.43
   6.761070        1039.79
   6.773772        1321.49
   6.786474        1719.90
   6.799177        2158.99
   6.811879        2647.44
   6.824581        3136.83
   6.837284        3608.86
   6.849986        3899.97
   6.862689        3984.96
   6.875391        3855.76
   6.888094        3559.45
   6.900797        3130.78
   6.913500        2710.33
   6.926203        2289.87
   6.938906        1951.95
   6.951609        1766.04
   6.964313        1731.28
   6.977016        1829.90
   6.989719        2041.38
   7.002423        2301.17
   7.015127        2527.32
   7.027830        2690.77
   7.040534        2756.58
   7.053238        2694.41
   7.065942        2510.21
   7.078646        2253.08
   7.091350        1905.78
   7.104054        1564.65
   7.116759        1263.54
   7.129463        1045.89
   7.142168         875.63
   7.154872         754.42
   7.167577         685.32
   7.180282         655.64
   7.192986         651.76
   7.205691         682.22
   7.218396         740.51
   7.231101         838.84
   7.243807         985.24
   7.256512        1219.61
   7.269217        1488.90
   7.281923        1800.88
   7.294628        2097.74
   7.307334        2419.60
   7.320040        2637.68
   7.332746        2735.31
   7.345452        2700.27
   7.358158        2536.18
   7.370864        2284.00
   7.383570        2025.70
   7.396276        1785.70
   7.408982        1599.61
   7.421689        1480.62
   7.434395        1477.89
   7.447102        1553.16
   7.459809        1685.22
   7.472516        1847.23
   7.485223        1978.25
   7.497930        2057.74
   7.510637        2063.11
   7.523344        1997.80
   7.536051        1867.66
   7.548759        1699.33
   7.561466        1503.25
   7.574174        1300.56
   7.586881        1135.07
   7.599589        1019.91
   7.612297         949.08
   7.625005         921.96
   7.637713         939.71
   7.650421        1012.58
   7.663129        1150.36
   7.675838        1390.90
   7.688546        1754.31
   7.701254        2220.66
   7.713963        2785.44
   7.726672        3519.83
   7.739381        4272.88
   7.752089        4941.37
   7.764798        5391.25
   7.777508        5614.79
   7.790217        5568.18
   7.802926        5212.45
   7.815635        4693.17
   7.828345        4020.89
   7.841054        3300.50
   7.853764        2728.78
   7.866474        2318.97
   7.879184        2060.89
   7.891894        1953.78
   7.904604        1965.04
   7.917314        2076.35
   7.930024        2231.21
   7.942734        2430.65
   7.955445        2592.57
   7.968155        2706.29
   7.980866        2734.07
   7.993577        2671.11
   8.006288        2527.15
   8.018998        2328.18
   8.031709        2098.06
   8.044421        1844.46
   8.057132        1621.08
   8.069843        1475.20
   8.082555        1411.15
   8.095266        1448.61
   8.107978        1604.78
   8.120689        1857.41
   8.133401        2218.73
   8.146113        2662.25
   8.158825        3207.79
   8.171537        3672.91
   8.184250        4010.78
   8.196962        4188.29
   8.209674        4168.67
   8.222387        3940.55
   8.235099        3580.51
   8.247812        3102.01
   8.260525        2589.90
   8.273238        2127.12
   8.285951        1790.98
   8.298664        1559.45
   8.311377        1408.21
   8.324091        1331.87
   8.336804        1306.34
   8.349518        1299.89
   8.362231        1293.60
   8.374945        1276.84
   8.387659        1242.02
   8.400373        1187.56
   8.413087        1110.67
   8.425801        1025.60
   8.438515         940.34
   8.451230         866.38
   8.463944         795.64
   8.476659         743.48
   8.489374         715.29
   8.502088         712.58
   8.514803         735.56
   8.527518         786.65
   8.540233         853.35
   8.552949         935.18
   8.565664        1022.12
   8.578379        1106.63
   8.591095        1160.04
   8.603811        1183.78
   8.616526        1173.30
   8.629242        1128.77
   8.641958        1071.07
   8.654674        1013.06
   8.667390         966.26
   8.680107         935.37
   8.692823         933.11
   8.705539         949.09
   8.718256         975.63
   8.730973        1000.23
   8.743690        1011.89
   8.756407        1004.53
   8.769124         975.01
   8.781841         929.15
   8.794558         873.44
   8.807275         826.17
   8.819993         793.30
   8.832710         782.43
   8.845428         803.00
   8.858146         860.78
   8.870864         961.83
   8.883582        1150.83
   8.896300        1409.32
   8.909018        1752.05
   8.921736        2156.66
   8.934455        2654.04
   8.947173        3173.00
   8.959892        3623.08
   8.972611        3909.75
   8.985330        4039.45
   8.998049        3951.42
   9.010768        3719.32
   9.023487        3353.58
   9.036206        2931.38
   9.048926        2458.05
   9.061645        2103.36
   9.074365        1840.94
   9.087085        1680.51
   9.099805        1574.50
   9.112525        1515.60
   9.125245        1470.59
   9.137965        1419.46
   9.150686        1351.29
   9.163406        1268.74
   9.176127        1187.68
   9.188847        1111.82
   9.201568        1049.46
   9.214289        1017.41
   9.227010        1029.07
   9.239731        1091.83
   9.252452        1235.35
   9.265174        1456.00
   9.277895        1748.49
   9.290617        2120.32
   9.303339        2563.72
   9.316060        3031.26
   9.328782        3423.33
   9.341504        3684.43
   9.354227        3820.64
   9.366949        3793.57
   9.379671        3645.70
   9.392394        3428.00
   9.405116        3193.36
   9.417839        3003.79
   9.430562        2929.43
   9.443285        2977.63
   9.456008        3111.32
   9.468731        3316.21
   9.481455        3489.11
   9.494178        3594.06
   9.506902        3590.95
   9.519625        3454.34
   9.532349        3217.88
   9.545073        2895.25
   9.557797        2522.32
   9.570521        2098.15
   9.583246        1720.03
   9.595970        1412.71
   9.608695        1153.10
   9.621419         943.09
   9.634144         786.88
   9.646869         682.92
   9.659594         608.40
   9.672319         555.05
   9.685044         514.10
   9.697769         487.11
   9.710495         467.69
   9.723221         452.65
   9.735946         441.43
   9.748672         434.72
   9.761398         431.14
   9.774124         430.44
   9.786850         432.43
   9.799577         437.18
   9.812303         443.77
   9.825030         451.99
   9.837756         460.34
   9.850483         466.70
   9.863210         470.17
   9.875937         470.27
   9.888664         466.21
   9.901391         460.16
   9.914119         452.69
   9.926846         446.66
   9.939574         443.45
   9.952302         446.96
   9.965030         457.93
   9.977758         477.75
   9.990486         507.94
  10.003214         540.37
  10.015943         571.71
  10.028671         598.83
  10.041400         617.43
  10.054129         623.82
  10.066857         617.36
  10.079586         601.38
  10.092316         579.48
  10.105045         557.28
  10.117774         540.69
  10.130504         529.21
  10.143233         523.23
  10.155963         520.46
  10.168693         517.68
  10.181423         513.32
  10.194153         504.98
  10.206883         495.18
  10.219614         485.14
  10.232344         478.68
  10.245075         478.59
  10.257806         488.68
  10.270537         511.51
  10.283268         551.73
  10.295999         613.31
  10.308730         700.47
  10.321462         797.58
  10.334193         903.03
  10.346925        1009.90
  10.359657        1109.51
  10.372389        1175.52
  10.385121        1212.62
  10.397853        1223.20
  10.410585        1218.22
  10.423318        1211.96
  10.436050        1216.02
  10.448783        1238.04
  10.461516        1276.89
  10.474249        1321.21
  10.486982        1355.13
  10.499715        1369.60
  10.512448        1349.67
  10.525182        1296.06
  10.537915        1215.64
  10.550649        1119.72
  10.563383        1014.28
  10.576117         936.13
  10.588851         889.88
  10.601585         882.37
  10.614320         921.94
  10.627054        1001.74
  10.639789        1118.63
  10.652524        1257.17
  10.665259        1411.79
  10.677994        1545.73
  10.690729        1633.17
  10.703464        1671.40
  10.716200        1666.80
  10.728935        1620.19
  10.741671        1561.89
  10.754407        1510.57
  10.767143        1493.01
  10.779879        1512.58
  10.792615        1574.11
  10.805351        1668.54
  10.818088        1779.20
  10.830825        1871.10
  10.843561        1915.31
  10.856298        1904.66
  10.869035        1832.64
  10.881773        1714.84
  10.894510        1575.79
  10.907247        1442.75
  10.919985        1326.92
  10.932723        1249.41
  10.945461        1226.12
  10.958199        1250.48
  10.970937        1306.79
  10.983675        1379.96
  10.996413        1436.82
  11.009152        1472.72
  11.021891        1474.85
  11.034629        1451.42
  11.047368        1416.34
  11.060107        1377.43
  11.072847        1345.80
  11.085586        1323.53
  11.098325        1316.66
  11.111065        1311.92
  11.123805        1302.32
  11.136545        1278.82
  11.149285        1243.41
  11.162025        1202.06
  11.174765        1162.29
  11.187506        1139.99
  11.200246        1159.04
  11.212987        1235.25
  11.225728        1377.11
  11.238469        1622.18
  11.251210        1906.70
  11.263952        2239.60
  11.276693        2573.09
  11.289435        2892.97
  11.302176        3100.19
  11.314918        3161.16
  11.327660        3077.85
  11.340402        2860.04
  11.353145        2530.85
  11.365887        2186.19
  11.378630        1825.28
  11.391372        1481.38
  11.404115        1202.63
  11.416858        1006.93
  11.429601         864.82
  11.442345         761.85
  11.455088         693.42
  11.467832         652.84
  11.480575         629.48
  11.493319         621.71
  11.506063         629.33
  11.518807         652.83
  11.531551         691.73
  11.544296         748.21
  11.557040         813.14
  11.569785         878.96
  11.582530         935.50
  11.595275         981.27
  11.608020        1003.26
  11.620765         997.78
  11.633511         969.61
  11.646256         925.12
  11.659002         871.76
  11.671748         825.19
  11.684494         786.80
  11.697240         758.94
  11.709986         741.28
  11.722733         732.05
  11.735479         725.98
  11.748226         719.08
  11.760973         710.09
  11.773720         700.71
  11.786467         695.45
  11.799214         697.28
  11.811962         711.11
  11.824710         740.62
  11.837457         784.93
  11.850205         840.78
  11.862953         905.70
  11.875701         960.67
  11.888450        1007.99
  11.901198        1042.44
  11.913947        1067.58
  11.926696        1085.04
  11.939445        1102.46
  11.952194        1129.01
  11.964943        1166.02
  11.977692        1209.29
  11.990442        1250.51
  12.003191        1284.12
  12.015941        1296.11
  12.028691        1279.63
  12.041441        1231.52
  12.054192        1159.86
  12.066942        1069.14
  12.079693         982.49
  12.092443         904.80
  12.105194         846.35
  12.117945         806.18
  12.130696         789.73
  12.143448         789.83
  12.156199         802.37
  12.168951         821.89
  12.181703         845.04
  12.194455         870.98
  12.207207         902.87
  12.219959         942.11
  12.232711         988.61
  12.245464        1038.82
  12.258216        1091.15
  12.270969        1137.48
  12.283722        1168.41
  12.296475        1178.31
  12.309229        1171.15
  12.321982        1150.33
  12.334736        1129.22
  12.347490        1122.06
  12.360243        1143.12
  12.372998        1207.38
  12.385752        1312.43
  12.398506        1449.30
  12.411261        1607.66
  12.424015        1767.13
  12.436770        1892.23
  12.449525        1955.68
  12.462280        1959.39
  12.475036        1899.09
  12.487791        1788.50
  12.500547        1652.41
  12.513302        1507.05
  12.526058        1357.06
  12.538814        1230.95
  12.551571        1122.35
  12.564327        1031.62
  12.577084         940.02
  12.589840         861.24
  12.602597         790.27
  12.615354         729.95
  12.628111         678.37
  12.640869         645.98
  12.653626         629.49
  12.666384         625.76
  12.679142         632.06
  12.691900         643.25
  12.704658         653.27
  12.717416         660.45
  12.730174         662.70
  12.742933         660.43
  12.755692         655.42
  12.768451         651.47
  12.781210         651.70
  12.793969         656.63
  12.806728         667.21
  12.819488         680.90
  12.832248         696.88
  12.845008         709.63
  12.857768         718.98
  12.870528         727.28
  12.883288         738.50
  12.896049         756.11
  12.908809         785.38
  12.921570         829.29
  12.934331         889.90
  12.947092         953.12
  12.959854        1011.34
  12.972615        1060.67
  12.985377        1094.96
  12.998138        1105.32
  13.010900        1101.04
  13.023663        1089.61
  13.036425        1078.39
  13.049187        1077.82
  13.061950        1089.54
  13.074713        1108.79
  13.087476        1128.79
  13.100239        1137.03
  13.113002        1126.69
  13.125765        1092.33
  13.138529        1032.92
  13.151293         960.36
  13.164057         883.48
  13.176821         812.52
  13.189585         746.28
  13.202349         698.24
  13.215114         666.33
  13.227879         646.17
  13.240644         634.14
  13.253409         628.75
  13.266174         628.08
  13.278939         631.26
  13.291705         638.23
  13.304471         648.12
  13.317236         659.19
  13.330002         671.57
  13.342769         682.57
  13.355535         690.84
  13.368302         697.33
  13.381068         704.64
  13.393835         718.72
  13.406602         742.60
  13.419370         784.05
  13.432137         838.42
  13.444905         914.21
  13.457672         991.53
  13.470440        1061.71
  13.483208        1118.19
  13.495976        1154.57
  13.508745        1158.80
  13.521513        1139.10
  13.534282        1098.11
  13.547051        1041.63
  13.559820         981.74
  13.572589         926.00
  13.585359         873.05
  13.598128         821.75
  13.610898         780.49
  13.623668         745.34
  13.636438         720.19
  13.649208         706.15
  13.661979         709.84
  13.674750         733.24
  13.687520         775.07
  13.700291         831.70
  13.713062         893.51
  13.725834         953.65
  13.738605        1009.60
  13.751377        1054.92
  13.764149        1087.78
  13.776921        1110.65
  13.789693        1124.71
  13.802465        1133.60
  13.815237        1133.92
  13.828010        1123.18
  13.840783        1098.31
  13.853556        1055.36
  13.866329        1001.73
  13.879103         937.71
  13.891876         869.94
  13.904650         805.66
  13.917424         757.64
  13.930198         728.89
  13.942972         713.63
  13.955746         713.30
  13.968521         719.96
  13.981296         730.36
  13.994071         742.25
  14.006846         754.95
  14.019621         768.17
  14.032396         788.23
  14.045172         816.39
  14.057948         852.58
  14.070724         889.96
  14.083500         925.95
  14.096276         949.75
  14.109053         954.39
  14.121829         934.64
  14.134606         893.76
  14.147383         831.44
  14.160161         759.15
  14.172938         687.33
  14.185715         624.83
  14.198493         570.67
  14.211271         530.30
  14.224049         507.24
  14.236827         497.34
  14.249606         499.16
  14.262385         510.23
  14.275163         528.16
  14.287942         550.58
  14.300722         576.47
  14.313501         601.59
  14.326280         622.32
  14.339060         638.72
  14.351840         653.03
  14.364620         665.26
  14.377400         679.65
  14.390181         700.86
  14.402961         731.39
  14.415742         770.16
  14.428523         812.19
  14.441304         855.45
  14.454085         893.19
  14.466867         919.65
  14.479649         932.19
  14.492430         928.98
  14.505213         912.74
  14.517995         888.55
  14.530777         857.37
  14.543560         822.29
  14.556343         779.52
  14.569125         735.31
  14.581909         689.12
  14.594692         640.81
  14.607475         592.16
  14.620259         548.25
  14.633043         514.19
  14.645827         486.89
  14.658611         467.47
  14.671396         457.78
  14.684180         456.83
  14.696965         462.88
  14.709750         476.91
  14.722535         497.05
  14.735321         523.09
  14.748106         553.99
  14.760892         587.39
  14.773678         619.04
  14.786464         646.81
  14.799250         672.65
  14.812036         694.63
  14.824823         715.16
  14.837610         737.91
  14.850397         769.38
  14.863184         811.04
  14.875971         858.26
  14.888759         913.55
  14.901547         965.05
  14.914335        1008.18
  14.927123        1029.25
  14.939911        1028.67
  14.952700        1008.03
  14.965488         968.27
  14.978277         918.95
  14.991066         868.91
  15.003855         817.49
  15.016645         770.23
  15.029434         730.83
  15.042224         697.16
  15.055014         666.35
  15.067804         639.95
  15.080595         620.24
  15.093385         606.54
  15.106176         599.89
  15.118967         599.45
  15.131758         604.75
  15.144550         613.67
  15.157341         625.22
  15.170133         637.16
  15.182925         648.80
  15.195717         660.03
  15.208509         670.31
  15.221301         676.98
  15.234094         679.52
  15.246887         676.49
  15.259680         667.25
  15.272473         652.57
  15.285267         636.58
  15.298060         620.64
  15.310854         606.43
  15.323648         597.71
  15.336442         593.60
  15.349237         592.85
  15.362031         592.35
  15.374826         589.87
  15.387621         583.58
  15.400416         572.24
  15.413211         556.51
  15.426007         538.42
  15.438803         520.24
  15.451599         501.60
  15.464395         484.95
  15.477191         471.75
  15.489988         462.22
  15.502784         456.23
  15.515581         453.94
  15.528378         455.53
  15.541175         460.88
  15.553973         470.02
  15.566771         482.14
  15.579568         496.44
  15.592367         512.40
  15.605165         531.09
  15.617963         551.27
  15.630762         572.76
  15.643561         594.48
  15.656360         618.36
  15.669159         642.35
  15.681958         666.42
  15.694758         692.41
  15.707558         723.05
  15.720358         762.06
  15.733158         812.27
  15.745959         873.84
  15.758759         951.01
  15.771560        1030.88
  15.784361        1105.78
  15.797162        1165.71
  15.809964        1208.15
  15.822765        1219.04
  15.835567        1200.97
  15.848369        1158.18
  15.861171        1098.85
  15.873974        1031.90
  15.886776         967.34
  15.899579         903.35
  15.912382         841.72
  15.925185         787.62
  15.937989         739.56
  15.950792         695.70
  15.963596         655.26
  15.976400         625.62
  15.989204         604.57
  16.002009         592.54
  16.014813         589.97
  16.027618         597.39
  16.040423         611.99
  16.053229         633.87
  16.066034         659.35
  16.078840         685.22
  16.091645         707.77
  16.104451         726.58
  16.117258         738.83
  16.130064         743.10
  16.142871         742.53
  16.155678         740.42
  16.168485         739.58
  16.181292         741.72
  16.194099         748.24
  16.206907         756.76
  16.219715         761.17
  16.232523         758.24
  16.245331         745.00
  16.258140         719.18
  16.270948         682.46
  16.283757         640.05
  16.296566         593.02
  16.309375         547.09
  16.322185         506.97
  16.334995         475.27
  16.347805         450.09
  16.360615         430.89
  16.373425         418.46
  16.386235         410.38
  16.399046         405.96
  16.411857         404.36
  16.424668         405.08
  16.437480         407.88
  16.450291         412.84
  16.463103         419.37
  16.475915         427.61
  16.488727         437.23
  16.501539         448.32
  16.514352         459.29
  16.527165         469.45
  16.539978         479.35
  16.552791         487.89
  16.565604         495.91
  16.578418         504.04
  16.591232         513.03
  16.604046         524.83
  16.616860         537.97
  16.629675         553.54
  16.642489         570.18
  16.655304         589.51
  16.668119         609.52
  16.680935         629.58
  16.693750         649.55
  16.706566         668.44
  16.719382         682.69
  16.732198         689.71
  16.745014         688.63
  16.757831         677.51
  16.770648         657.43
  16.783465         630.08
  16.796282         598.84
  16.809099         566.88
  16.821917         540.23
  16.834735         520.54
  16.847553         507.47
  16.860371         502.65
  16.873189         504.43
  16.886008         510.85
  16.898827         520.14
  16.911646         529.13
  16.924465         535.39
  16.937285         537.71
  16.950105         535.46
  16.962925         528.51
  16.975745         518.24
  16.988565         506.48
  17.001386         494.86
  17.014207         486.65
  17.027028         482.72
  17.039849         483.51
  17.052670         488.74
  17.065492         497.79
  17.078314         508.37
  17.091136         520.19
  17.103959         529.46
  17.116781         535.39
  17.129604         536.72
  17.142427         533.34
  17.155250         525.75
  17.168073         516.56
  17.180897         507.56
  17.193721         500.33
  17.206545         496.97
  17.219369         497.87
  17.232194         502.44
  17.245018         510.88
  17.257843         521.36
  17.270668         534.08
  17.283494         548.90
  17.296319         565.42
  17.309145         582.59
  17.321971         599.12
  17.334797         614.76
  17.347624         627.44
  17.360451         636.88
  17.373277         642.60
  17.386105         645.98
  17.398932         647.91
  17.411759         648.65
  17.424587         648.57
  17.437415         646.82
  17.450243         642.67
  17.463072         635.45
  17.475901         624.85
  17.488729         610.40
  17.501559         594.84
  17.514388         577.74
  17.527217         559.43
  17.540047         539.93
  17.552877         520.49
  17.565707         501.00
  17.578538         480.79
  17.591368         461.51
  17.604199         445.60
  17.617030         434.35
  17.629862         428.66
  17.642693         429.18
  17.655525         437.01
  17.668357         450.17
  17.681189         468.17
  17.694022         486.92
  17.706854         504.65
  17.719687         518.18
  17.732520         526.62
  17.745354         528.79
  17.758187         524.97
  17.771021         516.68
  17.783855         506.06
  17.796689         495.35
  17.809524         484.59
  17.822358         474.34
  17.835193         464.51
  17.848028         455.07
  17.860864         444.90
  17.873699         433.83
  17.886535         422.41
  17.899371         411.68
  17.912207         402.25
  17.925044         394.37
  17.937880         389.71
  17.950717         388.19
  17.963555         390.25
  17.976392         396.31
  17.989230         405.94
  18.002067         419.27
  18.014905         435.90
  18.027744         456.50
  18.040582         477.36
  18.053421         498.76
  18.066260         518.93
  18.079099         536.15
  18.091939         547.75
  18.104778         553.91
  18.117618         555.05
  18.130458         552.66
  18.143299         548.66
  18.156139         545.18
  18.168980         543.21
  18.181821         542.96
  18.194663         543.33
  18.207504         543.01
  18.220346         540.71
  18.233188         535.30
  18.246030         526.50
  18.258872         514.55
  18.271715         499.55
  18.284558         484.51
  18.297401         469.19
  18.310244         453.89
  18.323088         439.90
  18.335932         427.53
  18.348776         417.03
  18.361620         408.38
  18.374465         403.02
  18.387309         401.84
  18.400154         405.15
  18.413000         413.41
  18.425845         425.86
  18.438691         441.92
  18.451537         460.01
  18.464383         479.56
  18.477229         496.69
  18.490076         511.41
  18.502923         523.37
  18.515770         531.98
  18.528617         537.71
  18.541465         540.87
  18.554313         542.32
  18.567161         541.16
  18.580009         537.62
  18.592857         531.59
  18.605706         521.72
  18.618555         508.26
  18.631404         493.05
  18.644254         476.01
  18.657103         457.77
  18.669953         442.04
  18.682804         428.79
  18.695654         418.94
  18.708505         412.58
  18.721355         410.42
  18.734207         411.52
  18.747058         415.57
  18.759910         421.87
  18.772761         429.38
  18.785613         437.29
  18.798466         444.66
  18.811318         450.47
  18.824171         453.69
  18.837024         454.51
  18.849877         452.87
  18.862731         449.36
  18.875585         444.51
  18.888438         439.61
  18.901293         435.19
  18.914147         431.91
  18.927002         429.79
  18.939857         428.38
  18.952712         427.09
  18.965567         425.52
  18.978423         423.17
  18.991279         419.29
  19.004135         414.42
  19.016991         408.78
  19.029848         402.28
  19.042705         395.18
  19.055562         388.58
  19.068419         382.34
  19.081277         376.55
  19.094135         371.20
  19.106993         367.25
  19.119851         364.31
  19.132710         362.41
  19.145569         361.73
  19.158428         362.33
  19.171287         364.12
  19.184146         368.09
  19.197006         374.67
  19.209866         383.98
  19.222727         397.21
  19.235587         414.34
  19.248448         433.37
  19.261309         454.31
  19.274170         474.83
  19.287032         492.95
  19.299893         504.51
  19.312755         509.13
  19.325617         505.43
  19.338480         494.87
  19.351343         478.10
  19.364206         457.11
  19.377069         434.24
  19.389932         413.03
  19.402796         394.98
  19.415660         380.07
  19.428524         369.32
  19.441389         363.39
  19.454253         361.67
  19.467118         364.50
  19.479983         371.60
  19.492849         382.61
  19.505715         396.36
  19.518580         413.48
  19.531447         430.52
  19.544313         445.98
  19.557180         459.12
  19.570047         468.90
  19.582914         474.17
  19.595781         475.31
  19.608649         473.73
  19.621517         470.02
  19.634385         465.75
  19.647253         461.88
  19.660122         458.46
  19.672991         455.66
  19.685860         453.17
  19.698730         450.43
  19.711599         446.80
  19.724469         442.57
  19.737339         437.87
  19.750210         433.22
  19.763081         429.50
  19.775952         427.72
  19.788823         428.65
  19.801694         432.75
  19.814566         440.26
  19.827438         450.63
  19.840310         463.73
  19.853182         478.47
  19.866055         492.20
  19.878928         503.29
  19.891801         510.46
  19.904675         512.74
  19.917548         509.07
  19.930422         500.11
  19.943297         486.69
  19.956171         470.99
  19.969046         454.26
  19.981921         438.49
  19.994796         423.24
